T(K)		B(GPa)
0.0		228.1632
10.0		228.163
20.0		228.1609
30.0		228.1515
40.0		228.1273
50.0		228.0814
60.0		228.0107
70.0		227.9162
80.0		227.801
90.0		227.6689
100.0		227.5233
110.0		227.3672
120.0		227.2029
130.0		227.0322
140.0		226.8565
150.0		226.6768
160.0		226.4939
170.0		226.3085
180.0		226.121
190.0		225.9317
200.0		225.741
210.0		225.5492
220.0		225.3562
230.0		225.1625
240.0		224.9679
250.0		224.7727
260.0		224.5769
270.0		224.3806
280.0		224.1838
290.0		223.9866
300.0		223.789
310.0		223.591
320.0		223.3927
330.0		223.1941
340.0		222.9953
350.0		222.7961
360.0		222.5968
370.0		222.3971
380.0		222.1973
390.0		221.9973
400.0		221.797
410.0		221.5966
420.0		221.396
430.0		221.1952
440.0		220.9942
450.0		220.7931
460.0		220.5919
470.0		220.3904
480.0		220.1889
490.0		219.9872
500.0		219.7854
510.0		219.5834
520.0		219.3813
530.0		219.1791
540.0		218.9767
550.0		218.7743
560.0		218.5717
570.0		218.3691
580.0		218.1663
590.0		217.9634
600.0		217.7604
610.0		217.5573
620.0		217.3542
630.0		217.1509
640.0		216.9475
650.0		216.7441
660.0		216.5405
670.0		216.3369
680.0		216.1332
690.0		215.9294
700.0		215.7255
710.0		215.5215
720.0		215.3175
730.0		215.1133
740.0		214.9091
750.0		214.7048
760.0		214.5005
770.0		214.296
780.0		214.0915
790.0		213.8869
800.0		213.6822
810.0		213.4775
820.0		213.2727
830.0		213.0677
840.0		212.8628
850.0		212.6577
860.0		212.4525
870.0		212.2473
880.0		212.042
890.0		211.8366
900.0		211.6311
910.0		211.4255
920.0		211.2199
930.0		211.0141
940.0		210.8083
950.0		210.6023
960.0		210.3963
970.0		210.1902
980.0		209.984
990.0		209.7776
1000.0		209.5712
1010.0		209.3646
1020.0		209.158
1030.0		208.9512
1040.0		208.7443
1050.0		208.5373
1060.0		208.3301
1070.0		208.1229
1080.0		207.9155
1090.0		207.7079
1100.0		207.5002
1110.0		207.2924
1120.0		207.0844
1130.0		206.8763
1140.0		206.668
1150.0		206.4595
1160.0		206.2509
1170.0		206.0421
1180.0		205.8331
1190.0		205.624
1200.0		205.4146
1210.0		205.2051
1220.0		204.9953
1230.0		204.7854
1240.0		204.5752
1250.0		204.3648
1260.0		204.1542
1270.0		203.9434
1280.0		203.7323
1290.0		203.521
1300.0		203.3094
1310.0		203.0976
1320.0		202.8854
1330.0		202.6731
1340.0		202.4604
1350.0		202.2475
1360.0		202.0343
1370.0		201.8207
1380.0		201.6069
1390.0		201.3927
1400.0		201.1782
1410.0		200.9634
1420.0		200.7483
1430.0		200.5328
1440.0		200.3169
1450.0		200.1007
1460.0		199.8841
1470.0		199.6671
1480.0		199.4498
1490.0		199.232
1500.0		199.0138
1510.0		198.7952
1520.0		198.5762
1530.0		198.3568
1540.0		198.1369
1550.0		197.9165
1560.0		197.6957
1570.0		197.4745
1580.0		197.2527
1590.0		197.0305
1600.0		196.8078
1610.0		196.5845
1620.0		196.3608
1630.0		196.1365
1640.0		195.9117
1650.0		195.6864
1660.0		195.4605
1670.0		195.234
1680.0		195.007
1690.0		194.7794
1700.0		194.5512
1710.0		194.3224
1720.0		194.093
1730.0		193.863
1740.0		193.6324
1750.0		193.4011
1760.0		193.1692
1770.0		192.9366
1780.0		192.7034
1790.0		192.4695
1800.0		192.2349
1810.0		191.9996
1820.0		191.7636
1830.0		191.527
1840.0		191.2896
1850.0		191.0515
1860.0		190.8126
1870.0		190.573
1880.0		190.3327
1890.0		190.0916
1900.0		189.8497
1910.0		189.607
1920.0		189.3636
1930.0		189.1194
1940.0		188.8743
1950.0		188.6285
1960.0		188.3818
1970.0		188.1344
1980.0		187.886
1990.0		187.6369
2000.0		187.3869
2010.0		187.136
2020.0		186.8842
2030.0		186.6316
2040.0		186.3781
2050.0		186.1238
2060.0		185.8685
2070.0		185.6123
2080.0		185.3552
2090.0		185.0972
2100.0		184.8383
2110.0		184.5784
2120.0		184.3176
2130.0		184.0559
2140.0		183.7932
2150.0		183.5295
2160.0		183.2648
2170.0		182.9992
2180.0		182.7327
2190.0		182.4651
2200.0		182.1965
2210.0		181.927
2220.0		181.6564
2230.0		181.3849
2240.0		181.1123
2250.0		180.8387
2260.0		180.564
2270.0		180.2884
2280.0		180.0117
2290.0		179.7339
2300.0		179.4551
2310.0		179.1753
2320.0		178.8944
2330.0		178.6124
2340.0		178.3293
2350.0		178.0452
2360.0		177.76
2370.0		177.4737
2380.0		177.1863
2390.0		176.8978
2400.0		176.6082
2410.0		176.3175
2420.0		176.0257
2430.0		175.7327
2440.0		175.4387
2450.0		175.1435
2460.0		174.8472
2470.0		174.5497
2480.0		174.2511
2490.0		173.9514
2500.0		173.6505
2510.0		173.3484
2520.0		173.0452
2530.0		172.7409
2540.0		172.4353
2550.0		172.1286
2560.0		171.8207
2570.0		171.5116
2580.0		171.2013
2590.0		170.8899
2600.0		170.5772
2610.0		170.2633
2620.0		169.9483
2630.0		169.632
2640.0		169.3145
2650.0		168.9958
2660.0		168.6758
2670.0		168.3546
2680.0		168.0322
2690.0		167.7086
2700.0		167.3837
2710.0		167.0575
2720.0		166.7301
2730.0		166.4015
2740.0		166.0716
2750.0		165.7404
2760.0		165.4079
2770.0		165.0742
2780.0		164.7392
2790.0		164.4029
2800.0		164.0653
2810.0		163.7264
2820.0		163.3862
2830.0		163.0447
2840.0		162.7019
2850.0		162.3577
2860.0		162.0123
2870.0		161.6655
2880.0		161.3174
2890.0		160.9679
2900.0		160.6171
2910.0		160.2649
2920.0		159.9114
2930.0		159.5566
2940.0		159.2003
2950.0		158.8427
2960.0		158.4837
2970.0		158.1234
2980.0		157.7616
2990.0		157.3984
3000.0		157.0339
