T(K)		V(bohr^3)
0.0		14701.235
10.0		14701.2359
20.0		14701.2496
30.0		14701.3068
40.0		14701.4509
50.0		14701.7293
60.0		14702.1815
70.0		14702.829
80.0		14703.6753
90.0		14704.7112
100.0		14705.9209
110.0		14707.2865
120.0		14708.79
130.0		14710.4148
140.0		14712.1459
150.0		14713.97
160.0		14715.8757
170.0		14717.8534
180.0		14719.8948
190.0		14721.993
200.0		14724.142
210.0		14726.3366
220.0		14728.5725
230.0		14730.8458
240.0		14733.1532
250.0		14735.4917
260.0		14737.8587
270.0		14740.252
280.0		14742.6697
290.0		14745.11
300.0		14747.5714
310.0		14750.0525
320.0		14752.5521
330.0		14755.0692
340.0		14757.6028
350.0		14760.1521
360.0		14762.7161
370.0		14765.2945
380.0		14767.8866
390.0		14770.4918
400.0		14773.1096
410.0		14775.7396
420.0		14778.3813
430.0		14781.0344
440.0		14783.6987
450.0		14786.3737
460.0		14789.0592
470.0		14791.7551
480.0		14794.461
490.0		14797.1767
500.0		14799.9022
510.0		14802.6372
520.0		14805.3816
530.0		14808.1352
540.0		14810.898
550.0		14813.6698
560.0		14816.4506
570.0		14819.2401
580.0		14822.0385
590.0		14824.8455
600.0		14827.6612
610.0		14830.4855
620.0		14833.3182
630.0		14836.1595
640.0		14839.0092
650.0		14841.8674
660.0		14844.7339
670.0		14847.6088
680.0		14850.492
690.0		14853.3836
700.0		14856.2836
710.0		14859.1918
720.0		14862.1084
730.0		14865.0333
740.0		14867.9665
750.0		14870.908
760.0		14873.8579
770.0		14876.8161
780.0		14879.7827
790.0		14882.7576
800.0		14885.741
810.0		14888.7328
820.0		14891.733
830.0		14894.7416
840.0		14897.7588
850.0		14900.7845
860.0		14903.8187
870.0		14906.8614
880.0		14909.9128
890.0		14912.9731
900.0		14916.0419
910.0		14919.1193
920.0		14922.2056
930.0		14925.3006
940.0		14928.4045
950.0		14931.5173
960.0		14934.639
970.0		14937.7697
980.0		14940.9094
990.0		14944.0581
1000.0		14947.216
1010.0		14950.3831
1020.0		14953.5594
1030.0		14956.745
1040.0		14959.9399
1050.0		14963.1442
1060.0		14966.358
1070.0		14969.5812
1080.0		14972.814
1090.0		14976.0564
1100.0		14979.3085
1110.0		14982.5704
1120.0		14985.842
1130.0		14989.1236
1140.0		14992.415
1150.0		14995.7164
1160.0		14999.0279
1170.0		15002.3496
1180.0		15005.6814
1190.0		15009.0235
1200.0		15012.3759
1210.0		15015.7387
1220.0		15019.112
1230.0		15022.4958
1240.0		15025.8902
1250.0		15029.2954
1260.0		15032.7112
1270.0		15036.138
1280.0		15039.5756
1290.0		15043.0242
1300.0		15046.4839
1310.0		15049.9547
1320.0		15053.4367
1330.0		15056.9301
1340.0		15060.4348
1350.0		15063.951
1360.0		15067.4787
1370.0		15071.018
1380.0		15074.5691
1390.0		15078.1319
1400.0		15081.7066
1410.0		15085.2932
1420.0		15088.8919
1430.0		15092.5027
1440.0		15096.1258
1450.0		15099.7611
1460.0		15103.4089
1470.0		15107.0691
1480.0		15110.7419
1490.0		15114.4273
1500.0		15118.1255
1510.0		15121.8365
1520.0		15125.5605
1530.0		15129.2975
1540.0		15133.0476
1550.0		15136.811
1560.0		15140.5876
1570.0		15144.3777
1580.0		15148.1813
1590.0		15151.9985
1600.0		15155.8293
1610.0		15159.674
1620.0		15163.5326
1630.0		15167.4052
1640.0		15171.2919
1650.0		15175.1927
1660.0		15179.1079
1670.0		15183.0375
1680.0		15186.9816
1690.0		15190.9403
1700.0		15194.9138
1710.0		15198.902
1720.0		15202.9052
1730.0		15206.9234
1740.0		15210.9568
1750.0		15215.0054
1760.0		15219.0692
1770.0		15223.1486
1780.0		15227.2437
1790.0		15231.3544
1800.0		15235.4809
1810.0		15239.6233
1820.0		15243.7817
1830.0		15247.9563
1840.0		15252.1471
1850.0		15256.3542
1860.0		15260.5778
1870.0		15264.818
1880.0		15269.0748
1890.0		15273.3485
1900.0		15277.6391
1910.0		15281.9467
1920.0		15286.2715
1930.0		15290.6136
1940.0		15294.973
1950.0		15299.3499
1960.0		15303.7444
1970.0		15308.1567
1980.0		15312.5868
1990.0		15317.0349
2000.0		15321.501
2010.0		15325.9854
2020.0		15330.488
2030.0		15335.0091
2040.0		15339.5487
2050.0		15344.107
2060.0		15348.6841
2070.0		15353.28
2080.0		15357.8949
2090.0		15362.5293
2100.0		15367.1827
2110.0		15371.8554
2120.0		15376.5476
2130.0		15381.2594
2140.0		15385.9909
2150.0		15390.7422
2160.0		15395.5134
2170.0		15400.3047
2180.0		15405.1161
2190.0		15409.9478
2200.0		15414.7999
2210.0		15419.6725
2220.0		15424.5656
2230.0		15429.4794
2240.0		15434.4141
2250.0		15439.3697
2260.0		15444.3462
2270.0		15449.3439
2280.0		15454.3628
2290.0		15459.403
2300.0		15464.4647
2310.0		15469.5478
2320.0		15474.6526
2330.0		15479.779
2340.0		15484.9273
2350.0		15490.0974
2360.0		15495.2895
2370.0		15500.5036
2380.0		15505.7399
2390.0		15510.9984
2400.0		15516.2791
2410.0		15521.5823
2420.0		15526.9078
2430.0		15532.2559
2440.0		15537.6266
2450.0		15543.0199
2460.0		15548.4359
2470.0		15553.8746
2480.0		15559.3361
2490.0		15564.8205
2500.0		15570.3278
2510.0		15575.8581
2520.0		15581.4113
2530.0		15586.9876
2540.0		15592.5869
2550.0		15598.2093
2560.0		15603.8548
2570.0		15609.5234
2580.0		15615.2151
2590.0		15620.93
2600.0		15626.668
2610.0		15632.4292
2620.0		15638.2132
2630.0		15644.0206
2640.0		15649.8512
2650.0		15655.7048
2660.0		15661.5815
2670.0		15667.4811
2680.0		15673.4038
2690.0		15679.3493
2700.0		15685.3177
2710.0		15691.309
2720.0		15697.3229
2730.0		15703.3595
2740.0		15709.4188
2750.0		15715.5005
2760.0		15721.6046
2770.0		15727.7311
2780.0		15733.8797
2790.0		15740.0504
2800.0		15746.2431
2810.0		15752.4576
2820.0		15758.6938
2830.0		15764.9516
2840.0		15771.2307
2850.0		15777.5311
2860.0		15783.8526
2870.0		15790.1949
2880.0		15796.5579
2890.0		15802.9414
2900.0		15809.3453
2910.0		15815.7692
2920.0		15822.213
2930.0		15828.6765
2940.0		15835.1593
2950.0		15841.6614
2960.0		15848.1824
2970.0		15854.722
2980.0		15861.2801
2990.0		15867.8562
3000.0		15874.4502
