T(K)		B(GPa)
0.0		228.3857
10.0		228.3856
20.0		228.384
30.0		228.3768
40.0		228.3577
50.0		228.3198
60.0		228.2588
70.0		228.1744
80.0		228.0687
90.0		227.9447
100.0		227.8056
110.0		227.654
120.0		227.492
130.0		227.3214
140.0		227.1434
150.0		226.9588
160.0		226.7685
170.0		226.5727
180.0		226.3721
190.0		226.1671
200.0		225.9582
210.0		225.7459
220.0		225.531
230.0		225.3139
240.0		225.0953
250.0		224.8757
260.0		224.6554
270.0		224.4348
280.0		224.2141
290.0		223.9939
300.0		223.7747
310.0		223.557
320.0		223.3412
330.0		223.1279
340.0		222.9173
350.0		222.7092
360.0		222.5033
370.0		222.2989
380.0		222.0953
390.0		221.8911
400.0		221.6852
410.0		221.4768
420.0		221.2649
430.0		221.0493
440.0		220.8299
450.0		220.607
460.0		220.381
470.0		220.1524
480.0		219.9214
490.0		219.6885
500.0		219.4538
510.0		219.2175
520.0		218.9798
530.0		218.7408
540.0		218.5005
550.0		218.259
560.0		218.0162
570.0		217.7722
580.0		217.5271
590.0		217.2807
600.0		217.0332
610.0		216.7846
620.0		216.5347
630.0		216.2837
640.0		216.0316
650.0		215.7782
660.0		215.5238
670.0		215.2681
680.0		215.0113
690.0		214.7534
700.0		214.4943
710.0		214.234
720.0		213.9726
730.0		213.7101
740.0		213.4464
750.0		213.1815
760.0		212.9155
770.0		212.6483
780.0		212.38
790.0		212.1106
800.0		211.84
810.0		211.5683
820.0		211.2954
830.0		211.0214
840.0		210.7463
850.0		210.47
860.0		210.1925
870.0		209.914
880.0		209.6343
890.0		209.3535
900.0		209.0715
910.0		208.7884
920.0		208.5042
930.0		208.2188
940.0		207.9323
950.0		207.6447
960.0		207.3559
970.0		207.066
980.0		206.775
990.0		206.4829
1000.0		206.1896
1010.0		205.8953
1020.0		205.5998
1030.0		205.3031
1040.0		205.0054
1050.0		204.7065
1060.0		204.4065
1070.0		204.1053
1080.0		203.8031
1090.0		203.4997
1100.0		203.1952
1110.0		202.8896
1120.0		202.5829
1130.0		202.2751
1140.0		201.9661
1150.0		201.656
1160.0		201.3448
1170.0		201.0325
1180.0		200.7191
1190.0		200.4045
1200.0		200.0889
1210.0		199.7721
1220.0		199.4542
1230.0		199.1352
1240.0		198.8151
1250.0		198.4939
1260.0		198.1716
1270.0		197.8481
1280.0		197.5236
1290.0		197.1979
1300.0		196.8712
1310.0		196.5433
1320.0		196.2143
1330.0		195.8842
1340.0		195.553
1350.0		195.2208
1360.0		194.8874
1370.0		194.5529
1380.0		194.2173
1390.0		193.8806
1400.0		193.5428
1410.0		193.2039
1420.0		192.8639
1430.0		192.5229
1440.0		192.1807
1450.0		191.8374
1460.0		191.4931
1470.0		191.1477
1480.0		190.8011
1490.0		190.4535
1500.0		190.1048
1510.0		189.7551
1520.0		189.4042
1530.0		189.0523
1540.0		188.6992
1550.0		188.3451
1560.0		187.99
1570.0		187.6337
1580.0		187.2764
1590.0		186.9181
1600.0		186.5586
1610.0		186.1981
1620.0		185.8365
1630.0		185.4739
1640.0		185.1102
1650.0		184.7455
1660.0		184.3797
1670.0		184.0128
1680.0		183.6449
1690.0		183.276
1700.0		182.906
1710.0		182.535
1720.0		182.1629
1730.0		181.7898
1740.0		181.4157
1750.0		181.0406
1760.0		180.6644
1770.0		180.2872
1780.0		179.909
1790.0		179.5298
1800.0		179.1495
1810.0		178.7683
1820.0		178.3861
1830.0		178.0028
1840.0		177.6186
1850.0		177.2334
1860.0		176.8472
1870.0		176.46
1880.0		176.0718
1890.0		175.6827
1900.0		175.2925
1910.0		174.9015
1920.0		174.5094
1930.0		174.1164
1940.0		173.7225
1950.0		173.3276
1960.0		172.9318
1970.0		172.5351
1980.0		172.1374
1990.0		171.7388
2000.0		171.3393
2010.0		170.9389
2020.0		170.5375
2030.0		170.1353
2040.0		169.7322
2050.0		169.3282
2060.0		168.9233
2070.0		168.5176
2080.0		168.111
2090.0		167.7036
2100.0		167.2953
2110.0		166.8861
2120.0		166.4761
2130.0		166.0653
2140.0		165.6537
2150.0		165.2413
2160.0		164.8281
2170.0		164.4141
2180.0		163.9993
2190.0		163.5837
2200.0		163.1674
2210.0		162.7503
2220.0		162.3325
2230.0		161.914
2240.0		161.4947
2250.0		161.0747
2260.0		160.654
2270.0		160.2326
2280.0		159.8106
2290.0		159.3878
2300.0		158.9644
2310.0		158.5404
2320.0		158.1158
2330.0		157.6905
2340.0		157.2646
2350.0		156.8381
2360.0		156.411
2370.0		155.9834
2380.0		155.5552
2390.0		155.1265
2400.0		154.6972
2410.0		154.2675
2420.0		153.8372
2430.0		153.4065
2440.0		152.9753
2450.0		152.5436
2460.0		152.1116
2470.0		151.6791
2480.0		151.2462
2490.0		150.8129
2500.0		150.3793
2510.0		149.9453
2520.0		149.511
2530.0		149.0764
2540.0		148.6414
2550.0		148.2063
2560.0		147.7708
2570.0		147.3352
2580.0		146.8993
2590.0		146.4633
2600.0		146.0271
2610.0		145.5907
2620.0		145.1542
2630.0		144.7177
2640.0		144.281
2650.0		143.8443
2660.0		143.4076
2670.0		142.9709
2680.0		142.5342
2690.0		142.0975
2700.0		141.661
2710.0		141.2245
2720.0		140.7882
2730.0		140.352
2740.0		139.916
2750.0		139.4802
2760.0		139.0447
2770.0		138.6094
2780.0		138.1745
2790.0		137.7399
2800.0		137.3056
2810.0		136.8718
2820.0		136.4384
2830.0		136.0055
2840.0		135.573
2850.0		135.1411
2860.0		134.7098
2870.0		134.2791
2880.0		133.849
2890.0		133.4196
2900.0		132.9909
2910.0		132.563
2920.0		132.1359
2930.0		131.7096
2940.0		131.2842
2950.0		130.8597
2960.0		130.4361
2970.0		130.0136
2980.0		129.5921
2990.0		129.1717
3000.0		128.7525
