T(K)		B(GPa)
0.0		229.4809
10.0		229.4808
20.0		229.4792
30.0		229.4721
40.0		229.4527
50.0		229.4138
60.0		229.351
70.0		229.2639
80.0		229.1546
90.0		229.0263
100.0		228.8823
110.0		228.7253
120.0		228.5578
130.0		228.3816
140.0		228.1983
150.0		228.0091
160.0		227.8147
170.0		227.616
180.0		227.4135
190.0		227.2075
200.0		226.9985
210.0		226.7868
220.0		226.5724
230.0		226.3557
240.0		226.1367
250.0		225.9156
260.0		225.6925
270.0		225.4674
280.0		225.2406
290.0		225.0121
300.0		224.782
310.0		224.5504
320.0		224.3175
330.0		224.0835
340.0		223.8483
350.0		223.6122
360.0		223.3753
370.0		223.1376
380.0		222.8993
390.0		222.6602
400.0		222.4206
410.0		222.1804
420.0		221.9395
430.0		221.6979
440.0		221.4556
450.0		221.2125
460.0		220.9684
470.0		220.7234
480.0		220.4773
490.0		220.2302
500.0		219.9818
510.0		219.7323
520.0		219.4815
530.0		219.2295
540.0		218.9763
550.0		218.7219
560.0		218.4663
570.0		218.2095
580.0		217.9517
590.0		217.6927
600.0		217.4327
610.0		217.1716
620.0		216.9096
630.0		216.6465
640.0		216.3825
650.0		216.1175
660.0		215.8516
670.0		215.5848
680.0		215.317
690.0		215.0484
700.0		214.7788
710.0		214.5083
720.0		214.237
730.0		213.9647
740.0		213.6916
750.0		213.4175
760.0		213.1426
770.0		212.8668
780.0		212.5902
790.0		212.3126
800.0		212.0342
810.0		211.7549
820.0		211.4747
830.0		211.1937
840.0		210.9118
850.0		210.629
860.0		210.3454
870.0		210.0609
880.0		209.7755
890.0		209.4893
900.0		209.2022
910.0		208.9142
920.0		208.6254
930.0		208.3357
940.0		208.0452
950.0		207.7538
960.0		207.4616
970.0		207.1685
980.0		206.8745
990.0		206.5797
1000.0		206.2841
1010.0		205.9876
1020.0		205.6902
1030.0		205.3921
1040.0		205.093
1050.0		204.7932
1060.0		204.4924
1070.0		204.1909
1080.0		203.8885
1090.0		203.5852
1100.0		203.2812
1110.0		202.9762
1120.0		202.6705
1130.0		202.3639
1140.0		202.0565
1150.0		201.7483
1160.0		201.4392
1170.0		201.1293
1180.0		200.8186
1190.0		200.507
1200.0		200.1946
1210.0		199.8814
1220.0		199.5674
1230.0		199.2526
1240.0		198.9369
1250.0		198.6205
1260.0		198.3032
1270.0		197.9851
1280.0		197.6662
1290.0		197.3465
1300.0		197.0259
1310.0		196.7046
1320.0		196.3825
1330.0		196.0596
1340.0		195.7358
1350.0		195.4113
1360.0		195.086
1370.0		194.7598
1380.0		194.4329
1390.0		194.1052
1400.0		193.7767
1410.0		193.4475
1420.0		193.1174
1430.0		192.7866
1440.0		192.4549
1450.0		192.1225
1460.0		191.7894
1470.0		191.4554
1480.0		191.1207
1490.0		190.7852
1500.0		190.449
1510.0		190.112
1520.0		189.7742
1530.0		189.4357
1540.0		189.0964
1550.0		188.7564
1560.0		188.4157
1570.0		188.0741
1580.0		187.7319
1590.0		187.3889
1600.0		187.0451
1610.0		186.7007
1620.0		186.3555
1630.0		186.0096
1640.0		185.6629
1650.0		185.3155
1660.0		184.9675
1670.0		184.6187
1680.0		184.2692
1690.0		183.9189
1700.0		183.568
1710.0		183.2164
1720.0		182.8641
1730.0		182.5111
1740.0		182.1574
1750.0		181.8031
1760.0		181.448
1770.0		181.0923
1780.0		180.7359
1790.0		180.3789
1800.0		180.0211
1810.0		179.6628
1820.0		179.3037
1830.0		178.944
1840.0		178.5837
1850.0		178.2228
1860.0		177.8612
1870.0		177.4989
1880.0		177.1361
1890.0		176.7726
1900.0		176.4086
1910.0		176.0439
1920.0		175.6786
1930.0		175.3127
1940.0		174.9462
1950.0		174.5792
1960.0		174.2115
1970.0		173.8433
1980.0		173.4745
1990.0		173.1052
2000.0		172.7353
2010.0		172.3648
2020.0		171.9938
2030.0		171.6223
2040.0		171.2503
2050.0		170.8777
2060.0		170.5046
2070.0		170.131
2080.0		169.7569
2090.0		169.3823
2100.0		169.0072
2110.0		168.6316
2120.0		168.2556
2130.0		167.8791
2140.0		167.5021
2150.0		167.1247
2160.0		166.7469
2170.0		166.3686
2180.0		165.9899
2190.0		165.6108
2200.0		165.2312
2210.0		164.8513
2220.0		164.471
2230.0		164.0903
2240.0		163.7092
2250.0		163.3278
2260.0		162.9461
2270.0		162.5639
2280.0		162.1815
2290.0		161.7987
2300.0		161.4157
2310.0		161.0323
2320.0		160.6486
2330.0		160.2647
2340.0		159.8805
2350.0		159.496
2360.0		159.1113
2370.0		158.7263
2380.0		158.3412
2390.0		157.9558
2400.0		157.5702
2410.0		157.1844
2420.0		156.7985
2430.0		156.4124
2440.0		156.0261
2450.0		155.6397
2460.0		155.2532
2470.0		154.8666
2480.0		154.4799
2490.0		154.0931
2500.0		153.7062
2510.0		153.3193
2520.0		152.9323
2530.0		152.5453
2540.0		152.1584
2550.0		151.7714
2560.0		151.3844
2570.0		150.9974
2580.0		150.6106
2590.0		150.2237
2600.0		149.837
2610.0		149.4504
2620.0		149.0639
2630.0		148.6775
2640.0		148.2913
2650.0		147.9052
2660.0		147.5193
2670.0		147.1336
2680.0		146.7482
2690.0		146.363
2700.0		145.978
2710.0		145.5934
2720.0		145.209
2730.0		144.8249
2740.0		144.4412
2750.0		144.0579
2760.0		143.6749
2770.0		143.2923
2780.0		142.9101
2790.0		142.5284
2800.0		142.1471
2810.0		141.7663
2820.0		141.3861
2830.0		141.0063
2840.0		140.6271
2850.0		140.2485
2860.0		139.8704
2870.0		139.493
2880.0		139.1162
2890.0		138.7401
2900.0		138.3647
2910.0		137.99
2920.0		137.6161
2930.0		137.2429
2940.0		136.8705
2950.0		136.4989
2960.0		136.1281
2970.0		135.7582
2980.0		135.3893
2990.0		135.0212
3000.0		134.6541
